Load [MW]
 NaN   NaN   NaN   NaN   NaN   NaN   NaN   NaN   NaN   NaN   NaN   NaN   NaN   NaN   NaN   NaN   NaN   NaN   NaN   NaN   NaN   NaN   NaN   NaN  
55.5595  48.0675  54.5388  59.6081  56.8313  56.7812  56.8739  61.0157  59.7021  63.8936  61.2831  61.3503  60.3760  56.0169  59.8183  52.8121  59.7191  66.5312  66.6439  69.6659  66.5178  68.1606  68.7126  56.6910  
158.8332  177.8441  150.2499  153.3810  163.4714  170.1709  158.3945  153.6169  169.0334  154.9758  156.1558  159.6353  175.3215  157.9687  153.2533  162.2927  152.1509  175.5969  199.4596  193.9340  163.9926  180.8178  153.3120  154.0011  
117.2842  107.8229  121.6071  104.9370  112.5031  117.9177  107.7773  119.6338  113.1185  120.5788  130.0290  109.8775  124.0848  116.9759  115.7951  113.5270  119.0230  126.2673  136.4776  131.1841  134.1348  118.3291  121.6008  114.6301  
174.7703  207.5404  194.3385  190.8562  168.5378  166.0383  192.4971  167.9601  198.8774  198.6468  208.9359  205.2407  211.9431  200.4255  191.0465  163.0074  205.7003  211.8178  193.4596  217.5052  201.5462  215.2932  174.6321  192.3320  
283.5181  268.5784  298.5056  323.8338  288.3652  265.1568  314.9180  333.3490  309.1751  307.5803  295.0308  323.7398  279.4501  308.4443  306.5186  264.0535  308.0670  343.5692  333.5465  328.2915  319.9725  341.8361  309.9051  267.7412  
305.4353  245.1154  298.0624  283.3233  279.9592  291.4585  319.8826  303.8600  346.8404  321.7748  331.3092  263.0440  306.6656  302.3777  307.2445  309.3951  321.9881  308.7003  312.2519  373.0133  327.2719  302.9208  288.8869  303.9615  

Load [MVAR]
 NaN   NaN   NaN   NaN   NaN   NaN   NaN   NaN   NaN   NaN   NaN   NaN   NaN   NaN   NaN   NaN   NaN   NaN   NaN   NaN   NaN   NaN   NaN   NaN  
31.1491  31.3430  28.9318  31.5973  30.6091  28.1332  28.7196  27.1960  32.3303  30.2932  27.6472  29.7629  25.3957  32.0364  31.3403  25.0942  26.4763  31.3776  31.0023  28.2194  29.1895  29.0065  29.9758  30.7513  
58.3507  60.5751  54.9864  65.2639  69.2956  55.1064  57.1631  65.7315  58.8239  52.8281  67.9952  55.0669  59.8610  62.2903  63.2583  51.5578  68.4412  64.3651  51.7386  64.9793  65.3048  64.5050  67.9012  67.2889  
49.0301  46.2262  46.1410  43.0475  43.6564  44.5356  46.8426  44.2616  47.4460  45.1064  48.9992  50.6045  43.8230  48.1910  46.5428  43.5713  41.4212  42.7447  45.9719  44.2230  50.6465  46.4595  42.0423  45.4517  
62.7016  58.8631  59.1531  57.8637  59.1356  55.4662  58.9895  61.8990  55.2756  49.7744  55.6652  61.0579  55.2636  58.9931  61.4438  54.1679  57.2921  59.2090  55.4928  62.0243  58.2029  63.3091  54.4064  67.2281  
0.0000  0.0000  0.0000  0.0000  0.0000  0.0000  0.0000  0.0000  0.0000  0.0000  0.0000  0.0000  0.0000  0.0000  0.0000  0.0000  0.0000  0.0000  0.0000  0.0000  0.0000  0.0000  0.0000  0.0000  
0.0000  0.0000  0.0000  0.0000  0.0000  0.0000  0.0000  0.0000  0.0000  0.0000  0.0000  0.0000  0.0000  0.0000  0.0000  0.0000  0.0000  0.0000  0.0000  0.0000  0.0000  0.0000  0.0000  0.0000  

Generation [MW]
131.1303  140.4775  135.1294  133.1682  130.1668  131.7308  134.3202  130.7011  140.1799  139.3422  142.6841  139.8022  146.4175  137.3137  135.4494  128.0585  138.5706  148.3397  153.8428  159.3031  144.4361  149.5494  133.7434  134.9632  
220.9241  237.1425  229.5879  227.3238  218.4006  220.1761  228.5346  220.1154  237.7958  237.8178  243.9313  238.9089  248.6578  234.0017  230.2687  213.8234  237.6201  252.3943  257.7878  270.4074  245.7907  254.8867  227.3630  229.2253  
 NaN   NaN   NaN   NaN   NaN   NaN   NaN   NaN   NaN   NaN   NaN   NaN   NaN   NaN   NaN   NaN   NaN   NaN   NaN   NaN   NaN   NaN   NaN   NaN  
164.4917  178.5321  169.0286  159.1842  162.4915  168.7559  163.6863  162.8668  176.6358  174.2552  184.3376  171.4320  191.9766  172.1450  167.0993  159.7084  172.7630  194.8322  200.0000  200.0000  190.3132  194.0082  167.0502  166.6183  
 NaN   NaN   NaN   NaN   NaN   NaN   NaN   NaN   NaN   NaN   NaN   NaN   NaN   NaN   NaN   NaN   NaN   NaN   NaN   NaN   NaN   NaN   NaN   NaN  
285.0834  270.8889  300.3464  325.6354  289.5544  266.5870  316.7492  334.8393  311.3029  309.6203  297.3244  325.9647  281.8637  310.5814  308.3502  265.3927  310.2963  344.3894  334.3040  329.3461  322.1569  342.6778  311.4477  269.5918  
307.3944  245.2034  298.3299  285.2222  282.3015  293.4896  321.9529  304.0017  346.9154  321.9186  331.4359  263.1379  306.7508  304.0262  307.4590  310.7049  323.6256  310.4248  313.6199  374.6215  327.3660  304.6513  290.8741  304.1906  

Generation [MVAR]
1.2822  -0.1636  -0.5535  1.0706  2.8547  1.3499  0.1966  1.8938  -0.6949  -1.7249  -0.9709  -1.4571  -1.8979  -0.0660  0.2942  1.5994  -0.0615  -1.9466  -3.1915  -3.5986  -1.3229  -2.0526  1.2564  0.8749  
54.6793  54.6864  51.4676  56.4809  54.7703  48.8446  52.3328  51.9549  55.4485  51.3638  52.3002  54.8785  49.0050  56.2190  56.5636  44.4773  51.7822  57.5415  51.5538  54.3069  54.3882  57.1420  54.1457  57.8926  
 NaN   NaN   NaN   NaN   NaN   NaN   NaN   NaN   NaN   NaN   NaN   NaN   NaN   NaN   NaN   NaN   NaN   NaN   NaN   NaN   NaN   NaN   NaN   NaN  
64.7064  64.0363  57.5082  60.6136  67.5680  58.3143  59.2991  64.9020  62.1559  53.1020  71.1331  61.3443  61.1678  65.6333  64.1317  53.1193  62.6510  64.0953  65.1400  73.3471  72.2351  68.0670  62.9632  67.2322  
 NaN   NaN   NaN   NaN   NaN   NaN   NaN   NaN   NaN   NaN   NaN   NaN   NaN   NaN   NaN   NaN   NaN   NaN   NaN   NaN   NaN   NaN   NaN   NaN  
-5.8019  -4.8909  -5.2109  -5.4456  -5.8791  -6.0008  -5.3904  -5.8984  -5.1574  -5.1615  -4.8507  -4.9926  -4.7641  -5.1900  -5.3286  -6.0350  -5.0580  -4.3053  -4.7562  -4.0274  -5.0498  -4.1953  -5.8332  -5.2793  
76.8596  84.8608  80.9899  78.4808  72.7547  69.9623  79.6123  75.1259  80.0215  76.5311  83.2847  85.4592  83.9910  82.1563  81.4318  68.5837  82.6769  85.7187  78.2596  89.4260  82.6533  89.3074  71.6887  85.3918  

Bus Voltage [per unit]
1.0500  1.0500  1.0500  1.0500  1.0500  1.0500  1.0500  1.0500  1.0500  1.0500  1.0500  1.0500  1.0500  1.0500  1.0500  1.0500  1.0500  1.0500  1.0500  1.0500  1.0500  1.0500  1.0500  1.0500  
1.0400  1.0400  1.0400  1.0400  1.0400  1.0400  1.0400  1.0400  1.0400  1.0400  1.0400  1.0400  1.0400  1.0400  1.0400  1.0400  1.0400  1.0400  1.0400  1.0400  1.0400  1.0400  1.0400  1.0400  
0.9839  0.9816  0.9854  0.9827  0.9808  0.9836  0.9842  0.9825  0.9828  0.9855  0.9817  0.9846  0.9819  0.9830  0.9832  0.9852  0.9820  0.9808  0.9815  0.9788  0.9816  0.9803  0.9821  0.9821  
1.0000  1.0000  1.0000  1.0000  1.0000  1.0000  1.0000  1.0000  1.0000  1.0000  1.0000  1.0000  1.0000  1.0000  1.0000  1.0000  1.0000  1.0000  1.0000  1.0000  1.0000  1.0000  1.0000  1.0000  
0.9922  0.9885  0.9904  0.9915  0.9944  0.9961  0.9908  0.9935  0.9911  0.9931  0.9894  0.9881  0.9891  0.9896  0.9901  0.9970  0.9894  0.9877  0.9919  0.9857  0.9896  0.9857  0.9952  0.9879  
1.0400  1.0400  1.0400  1.0400  1.0400  1.0400  1.0400  1.0400  1.0400  1.0400  1.0400  1.0400  1.0400  1.0400  1.0400  1.0400  1.0400  1.0400  1.0400  1.0400  1.0400  1.0400  1.0400  1.0400  
1.0400  1.0400  1.0400  1.0400  1.0400  1.0400  1.0400  1.0400  1.0400  1.0400  1.0400  1.0400  1.0400  1.0400  1.0400  1.0400  1.0400  1.0400  1.0400  1.0400  1.0400  1.0400  1.0400  1.0400  

Bus Angle [deg]
8.0424  9.2982  8.8286  8.5751  7.8029  7.7623  8.6360  7.9342  9.0512  9.0475  9.4589  9.2590  9.5992  8.9775  8.7367  7.6244  9.1826  9.6004  9.1721  10.0540  9.2747  9.7278  8.1142  8.7687  
5.5638  6.6048  6.1979  5.9759  5.3606  5.3189  6.0353  5.4425  6.3280  6.2992  6.6334  6.4961  6.7369  6.3030  6.0904  5.2516  6.4426  6.6782  6.2801  6.9636  6.4364  6.7734  5.5255  6.1401  
1.3751  2.2105  2.2011  2.1305  1.1604  0.8663  2.0145  1.3989  2.1160  2.3041  2.6032  2.5216  2.3585  2.2484  2.1551  0.9423  2.5577  2.3461  0.9970  1.9505  2.2216  2.4401  1.5518  2.1958  
2.2428  3.3134  2.9731  2.9536  2.0541  1.8763  2.9156  2.1777  3.1230  3.1560  3.3757  3.4485  3.4032  3.0953  2.9533  1.8838  3.3121  3.3786  2.2353  3.0789  3.0896  3.5601  2.3223  2.9855  
-1.0795  -1.3012  -1.2014  -1.2054  -1.0607  -1.0681  -1.2202  -0.9941  -1.2534  -1.2809  -1.3284  -1.2566  -1.3569  -1.2756  -1.1579  -1.0342  -1.3191  -1.3543  -1.2817  -1.4134  -1.2647  -1.3504  -1.1210  -1.1343  
3.7267  4.4305  4.1514  4.0041  3.5837  3.5619  4.0439  3.6449  4.2439  4.2228  4.4490  4.3569  4.5200  4.2276  4.0803  3.5154  4.3217  4.4437  4.1800  4.6372  4.3166  4.5069  3.7009  4.1135  
0.0000  0.0000  0.0000  0.0000  0.0000  0.0000  0.0000  0.0000  0.0000  0.0000  0.0000  0.0000  0.0000  0.0000  0.0000  0.0000  0.0000  0.0000  0.0000  0.0000  0.0000  0.0000  0.0000  0.0000  

Line Flows [MVA]
77.2010  83.6054  81.7360  80.7940  76.1228  76.1552  80.8410  77.5919  84.4978  85.2463  87.5528  85.6825  88.6519  83.0415  82.1995  74.0535  84.9990  90.4419  89.5389  95.4746  87.9342  91.4067  80.4823  81.6703  
55.6156  58.7394  55.1008  54.3517  55.9630  57.1608  55.2571  54.9702  57.5412  55.8502  57.1956  55.9572  59.6916  56.1626  55.1644  55.4998  55.6418  59.9533  65.9911  65.8800  58.5013  60.2502  55.2309  55.2829  
50.1590  52.4573  48.1742  47.8390  51.1710  52.3407  48.7300  49.4174  50.6510  48.1306  49.5712  48.2506  52.2243  49.3705  48.3819  50.7365  48.3653  52.1912  59.7121  58.2007  51.0255  52.3490  49.0344  48.7799  
38.5302  38.2833  37.7301  36.0697  38.4085  39.5488  36.8644  38.0615  37.5668  37.0573  38.0029  36.2758  38.6354  37.5894  37.0082  38.9210  36.9528  38.3510  44.7136  43.3229  38.7448  37.6351  37.5519  37.1520  
104.2799  122.3472  114.9842  111.7698  100.7119  99.8386  112.9334  101.1540  117.3237  116.8811  122.9123  120.3481  124.7936  117.6283  112.9980  98.2390  120.1774  124.2477  116.8968  129.3761  119.2863  125.9423  103.5989  113.9044  
55.7048  65.7505  61.9442  59.7182  53.9100  53.3188  60.2997  54.5280  63.0645  62.8336  66.0531  64.7052  67.0220  62.8041  60.8595  52.7016  64.1575  67.5443  63.5407  70.2850  64.1267  68.4978  55.3324  61.3509  
69.0850  82.7127  62.1315  70.0925  76.9429  74.9813  69.5375  69.0458  76.4831  64.8679  70.8365  69.6956  79.7489  70.3183  68.1734  69.0555  69.5528  81.6976  88.1995  89.5487  74.1092  85.9629  69.9787  70.3645  
23.5594  32.4097  29.3923  29.2850  22.1529  21.0170  29.1263  22.5337  30.7706  31.1972  33.0138  33.0311  33.3974  30.7380  28.9607  20.8624  32.5160  33.2257  24.8924  31.6262  30.6245  34.4674  24.4182  29.0478  
83.0327  91.2161  87.0759  85.5744  79.4942  77.0960  86.7282  80.1566  86.7047  84.1249  90.1893  91.2958  91.0479  89.2548  87.0257  75.3496  90.1179  93.0278  85.9804  96.6487  89.0194  95.9858  79.0646  90.2011  
28.6925  33.9072  31.8381  30.7472  27.6336  27.4721  31.0422  28.0863  32.5236  32.3677  34.0437  33.3615  34.5700  32.4033  31.3117  27.1273  33.1008  34.0050  32.0505  35.4389  33.0629  34.4733  28.5012  31.5578  
28.6925  33.9072  31.8381  30.7472  27.6336  27.4721  31.0422  28.0863  32.5236  32.3677  34.0437  33.3615  34.5700  32.4033  31.3117  27.1273  33.1008  34.0050  32.0505  35.4389  33.0629  34.4733  28.5012  31.5578  

Maximum Line Violation [Percent]
61.7608  66.8843  65.3888  64.6352  60.8982  60.9241  64.6728  62.0735  67.5983  68.1971  70.0422  68.5460  70.9215  66.4332  65.7596  59.2428  67.9992  72.3535  71.6311  76.3797  70.3474  73.1254  64.3858  65.3362  
92.6927  97.8990  91.8347  90.5861  93.2716  95.2680  92.0952  91.6170  95.9021  93.0836  95.3261  93.2619  99.4861  93.6044  91.9407  92.4997  92.7364  99.9222  109.9852  109.8000  97.5021  100.4169  92.0515  92.1381  
77.1677  80.7035  74.1141  73.5985  78.7246  80.5242  74.9692  76.0268  77.9246  74.0471  76.2635  74.2317  80.3451  75.9546  74.4336  78.0561  74.4082  80.2941  91.8647  89.5395  78.5007  80.5369  75.4375  75.0460  
48.1627  47.8541  47.1626  45.0871  48.0106  49.4360  46.0806  47.5769  46.9585  46.3216  47.5037  45.3448  48.2943  46.9868  46.2602  48.6512  46.1910  47.9388  55.8919  54.1537  48.4310  47.0438  46.9399  46.4400  
94.7999  111.2248  104.5311  101.6089  91.5563  90.7623  102.6667  91.9582  106.6579  106.2555  111.7384  109.4073  113.4488  106.9348  102.7255  89.3081  109.2521  112.9525  106.2698  117.6146  108.4420  114.4930  94.1809  103.5494  
42.8498  50.5773  47.6494  45.9371  41.4692  41.0144  46.3844  41.9446  48.5112  48.3335  50.8101  49.7732  51.5554  48.3109  46.8150  40.5397  49.3519  51.9571  48.8774  54.0654  49.3282  52.6906  42.5633  47.1930  
86.5855  104.2620  77.6644  87.8404  96.7221  94.2523  87.1941  86.4584  96.1825  81.1879  88.7593  87.4193  100.4121  88.1495  85.3547  86.6157  87.0909  102.9324  111.3842  113.1610  93.0454  108.4844  87.6523  88.1639  
39.2656  54.0162  48.9872  48.8083  36.9215  35.0283  48.5438  37.5562  51.2843  51.9953  55.0229  55.0519  55.6623  51.2300  48.2679  34.7707  54.1933  55.3762  41.4873  52.7103  51.0408  57.4457  40.6970  48.4129  
55.3551  60.8107  58.0506  57.0496  52.9962  51.3973  57.8188  53.4378  57.8031  56.0833  60.1262  60.8639  60.6986  59.5032  58.0172  50.2331  60.0786  62.0185  57.3202  64.4325  59.3463  63.9905  52.7098  60.1340  
19.1283  22.6048  21.2254  20.4981  18.4224  18.3147  20.6948  18.7242  21.6824  21.5784  22.6958  22.2410  23.0467  21.6022  20.8744  18.0849  22.0672  22.6700  21.3670  23.6259  22.0420  22.9822  19.0008  21.0385  
19.1283  22.6048  21.2254  20.4981  18.4224  18.3147  20.6948  18.7242  21.6824  21.5784  22.6958  22.2410  23.0467  21.6022  20.8744  18.0849  22.0672  22.6700  21.3670  23.6259  22.0420  22.9822  19.0008  21.0385  
