Load [MW]
 NaN   NaN   NaN   NaN   NaN   NaN   NaN   NaN   NaN   NaN   NaN   NaN   NaN   NaN   NaN   NaN   NaN   NaN   NaN   NaN   NaN   NaN   NaN   NaN  
36.7364  40.1116  37.4347  37.3831  36.2507  41.3095  37.6886  42.7560  37.7351  37.2377  44.6770  39.3129  41.9931  42.6072  37.7354  35.5108  37.5626  42.1511  38.8007  44.6513  43.0158  41.6526  40.0445  38.3374  
108.6034  111.5588  101.0886  94.5258  97.3243  94.2165  112.6035  119.8865  103.1359  108.1399  118.5436  120.1340  104.9540  109.4406  104.2546  107.3527  99.7672  109.9186  116.6373  117.6909  125.8710  112.6138  96.7787  106.7539  
79.6126  81.6771  71.7455  71.7740  69.9611  83.9065  83.1990  74.5658  73.3596  81.2263  75.8576  79.5895  70.1709  80.9045  82.8756  87.4044  86.7487  88.9243  87.1737  88.7631  80.0248  88.5179  74.0655  75.8448  
128.7598  125.1105  122.0641  112.5943  127.4160  110.6481  124.9989  118.9147  127.8750  145.3878  125.5043  149.1570  122.3579  114.8220  118.3276  132.8144  129.3619  130.9577  147.8598  129.1897  149.1573  147.2695  141.2489  131.0772  
197.8117  185.8809  190.1849  188.5554  191.8810  205.3650  207.7017  173.4543  192.6316  218.1536  197.5203  223.3235  214.5679  180.9726  200.8443  164.0609  177.0879  214.7574  230.9817  228.7249  201.4035  219.4155  200.5978  186.4518  
194.4684  214.4353  184.2118  200.0515  190.6309  194.6315  218.7046  212.0212  202.9474  196.4188  221.6117  173.8518  191.1794  190.9881  177.2578  183.2806  203.0402  204.1070  213.2747  218.3428  222.2939  214.5990  199.4656  175.1036  

Load [MVAR]
 NaN   NaN   NaN   NaN   NaN   NaN   NaN   NaN   NaN   NaN   NaN   NaN   NaN   NaN   NaN   NaN   NaN   NaN   NaN   NaN   NaN   NaN   NaN   NaN  
20.8487  20.5641  22.5330  19.4574  19.0816  19.3332  18.8082  21.3067  21.8636  16.9291  18.6432  19.9788  19.3123  21.7682  18.1368  20.0115  19.2512  19.2096  18.8752  21.5498  20.6042  19.7467  19.9919  20.2189  
44.3969  38.5537  40.1298  39.0160  41.4079  38.8637  41.6352  42.2692  42.8733  38.3267  44.8399  44.3014  39.3436  41.6743  37.9578  38.6413  39.8510  39.8862  43.5510  40.8279  40.5756  38.3321  39.6759  38.8129  
28.9243  31.2050  28.0408  27.8580  28.1868  32.1812  31.2963  30.7700  29.2245  28.4971  31.5217  32.7812  28.9520  31.7828  33.2912  28.9304  30.8838  31.4705  27.3997  26.1381  27.2245  28.2987  30.1086  28.1400  
42.6172  38.4469  43.4499  42.2130  41.7816  37.8029  40.8693  34.4484  44.2913  39.7131  41.4130  35.8050  38.3537  37.6225  39.6890  35.7950  38.0417  37.4361  42.1315  37.7474  49.3897  37.5988  38.8582  39.2179  
0.0000  0.0000  0.0000  0.0000  0.0000  0.0000  0.0000  0.0000  0.0000  0.0000  0.0000  0.0000  0.0000  0.0000  0.0000  0.0000  0.0000  0.0000  0.0000  0.0000  0.0000  0.0000  0.0000  0.0000  
0.0000  0.0000  0.0000  0.0000  0.0000  0.0000  0.0000  0.0000  0.0000  0.0000  0.0000  0.0000  0.0000  0.0000  0.0000  0.0000  0.0000  0.0000  0.0000  0.0000  0.0000  0.0000  0.0000  0.0000  

Generation [MW]
100.0000  101.2150  100.0000  100.0000  100.0000  100.0000  101.2317  101.6817  100.0000  104.3334  102.6689  108.0608  100.0000  100.0000  100.0000  101.4449  100.0000  103.4683  107.9726  105.8650  110.2418  107.9275  100.5917  100.0000  
167.1321  168.6208  158.0632  150.0000  158.6685  154.3578  167.9687  168.1198  163.2575  176.0556  171.8471  181.7192  162.4298  162.9516  160.3907  169.3780  166.7617  173.6472  181.4915  176.4864  185.2714  181.9669  171.1530  167.8873  
 NaN   NaN   NaN   NaN   NaN   NaN   NaN   NaN   NaN   NaN   NaN   NaN   NaN   NaN   NaN   NaN   NaN   NaN   NaN   NaN   NaN   NaN   NaN   NaN  
93.1141  95.4228  80.3040  72.2591  78.4279  81.2286  96.7594  94.6564  85.1507  98.7134  96.3783  106.1145  83.0491  90.7565  88.7479  97.8759  93.0098  101.2861  108.6724  106.1623  110.3607  107.6193  87.4719  90.5569  
 NaN   NaN   NaN   NaN   NaN   NaN   NaN   NaN   NaN   NaN   NaN   NaN   NaN   NaN   NaN   NaN   NaN   NaN   NaN   NaN   NaN   NaN   NaN   NaN  
199.0125  185.9267  191.0590  189.3336  192.8186  206.1381  207.8514  173.1596  193.5661  219.3660  199.0191  224.4865  215.4374  181.7281  201.6336  164.7025  177.9439  215.8325  232.1165  229.7309  202.4055  220.5268  201.6106  187.3796  
194.6170  215.2822  184.6015  200.0397  191.0284  195.0220  218.8971  211.5066  203.3720  196.9611  221.7062  174.4140  191.5797  191.4119  177.7539  185.0694  203.5683  204.6723  213.8828  217.3933  223.1993  215.2175  199.5825  175.5785  

Generation [MVAR]
6.1739  5.3714  5.3987  5.0278  5.3553  5.0302  5.7362  5.9444  5.7573  4.2957  5.8651  4.3529  5.4610  5.9434  5.3653  5.1643  5.3569  4.8139  4.1841  4.5600  3.6090  3.4896  4.9660  5.5046  
35.0202  32.9609  37.9365  35.1400  34.2129  33.3134  31.8725  33.5274  37.3494  29.6304  33.6223  32.6550  33.3727  35.1687  31.2101  30.9854  31.5026  31.5320  32.8812  34.2895  37.2143  32.1279  33.4938  33.1050  
 NaN   NaN   NaN   NaN   NaN   NaN   NaN   NaN   NaN   NaN   NaN   NaN   NaN   NaN   NaN   NaN   NaN   NaN   NaN   NaN   NaN   NaN   NaN   NaN  
22.7792  20.4182  17.6026  16.5979  17.7870  21.0910  23.6867  22.2306  20.9633  16.8616  25.8980  26.1076  16.8140  23.3356  22.2973  18.2731  20.4269  22.0329  21.6551  18.0082  20.0064  17.3461  17.0475  16.2557  
 NaN   NaN   NaN   NaN   NaN   NaN   NaN   NaN   NaN   NaN   NaN   NaN   NaN   NaN   NaN   NaN   NaN   NaN   NaN   NaN   NaN   NaN   NaN   NaN  
-6.8986  -6.6027  -6.9525  -7.0939  -6.8709  -7.1337  -6.6092  -6.5754  -6.8512  -6.5403  -7.0739  -6.4273  -6.9550  -7.0447  -6.9840  -6.6684  -6.7825  -6.8152  -6.4338  -6.7690  -6.3703  -6.4517  -6.5868  -6.7805  
52.7372  49.0408  51.4112  48.4369  51.7617  45.1849  50.7166  45.5716  53.3895  55.1894  51.1957  53.8484  48.4164  46.1086  48.2032  49.1007  50.0055  50.0558  57.3048  50.3547  61.9159  54.4066  53.6957  51.1534  

Bus Voltage [per unit]
1.0500  1.0500  1.0500  1.0500  1.0500  1.0500  1.0500  1.0500  1.0500  1.0500  1.0500  1.0500  1.0500  1.0500  1.0500  1.0500  1.0500  1.0500  1.0500  1.0500  1.0500  1.0500  1.0500  1.0500  
1.0400  1.0400  1.0400  1.0400  1.0400  1.0400  1.0400  1.0400  1.0400  1.0400  1.0400  1.0400  1.0400  1.0400  1.0400  1.0400  1.0400  1.0400  1.0400  1.0400  1.0400  1.0400  1.0400  1.0400  
0.9918  0.9929  0.9934  0.9942  0.9935  0.9943  0.9921  0.9913  0.9926  0.9932  0.9908  0.9908  0.9933  0.9923  0.9936  0.9932  0.9936  0.9927  0.9912  0.9918  0.9912  0.9928  0.9939  0.9933  
1.0000  1.0000  1.0000  1.0000  1.0000  1.0000  1.0000  1.0000  1.0000  1.0000  1.0000  1.0000  1.0000  1.0000  1.0000  1.0000  1.0000  1.0000  1.0000  1.0000  1.0000  1.0000  1.0000  1.0000  
1.0059  1.0079  1.0065  1.0083  1.0064  1.0100  1.0070  1.0101  1.0055  1.0046  1.0068  1.0054  1.0083  1.0095  1.0084  1.0077  1.0074  1.0074  1.0034  1.0075  1.0007  1.0051  1.0055  1.0068  
1.0400  1.0400  1.0400  1.0400  1.0400  1.0400  1.0400  1.0400  1.0400  1.0400  1.0400  1.0400  1.0400  1.0400  1.0400  1.0400  1.0400  1.0400  1.0400  1.0400  1.0400  1.0400  1.0400  1.0400  
1.0400  1.0400  1.0400  1.0400  1.0400  1.0400  1.0400  1.0400  1.0400  1.0400  1.0400  1.0400  1.0400  1.0400  1.0400  1.0400  1.0400  1.0400  1.0400  1.0400  1.0400  1.0400  1.0400  1.0400  

Bus Angle [deg]
6.0204  5.9228  5.8412  5.6110  6.0002  5.5366  5.9512  5.8024  5.9997  6.5977  5.9709  6.7755  5.8317  5.6107  5.7232  6.1062  6.0454  6.1566  6.7529  6.2270  6.8216  6.7390  6.4218  6.0736  
4.1992  4.0818  3.9819  3.7363  4.1205  3.6752  4.1192  3.9653  4.1452  4.6474  4.1006  4.7590  3.9764  3.7968  3.8990  4.2564  4.2009  4.2541  4.7408  4.2828  4.7629  4.7110  4.5121  4.2344  
0.9853  0.7806  0.9405  0.7630  1.1837  0.6329  0.7803  0.5988  1.0905  1.4564  0.7700  1.4078  0.9166  0.5380  0.6746  0.9632  1.0817  0.9487  1.3738  0.8612  1.3114  1.4104  1.6377  1.0924  
1.4256  1.2748  1.3200  1.0530  1.5199  0.8991  1.2659  1.1993  1.4875  1.9113  1.3398  1.9830  1.3627  0.9948  1.0701  1.3848  1.4181  1.3978  1.8877  1.4003  1.9710  1.8999  1.9888  1.5500  
-0.7998  -0.8075  -0.7435  -0.6767  -0.7882  -0.7033  -0.7824  -0.7552  -0.7804  -0.9402  -0.7841  -0.9923  -0.7734  -0.7358  -0.7515  -0.9046  -0.8373  -0.8588  -0.9513  -0.8147  -0.9189  -0.9714  -0.8932  -0.8358  
2.8166  2.7118  2.6652  2.5004  2.7584  2.4598  2.7390  2.6266  2.7747  3.1132  2.7584  3.1858  2.6614  2.5399  2.6083  2.8413  2.8096  2.8500  3.1731  2.8674  3.1846  3.1529  3.0191  2.8335  
0.0000  0.0000  0.0000  0.0000  0.0000  0.0000  0.0000  0.0000  0.0000  0.0000  0.0000  0.0000  0.0000  0.0000  0.0000  0.0000  0.0000  0.0000  0.0000  0.0000  0.0000  0.0000  0.0000  0.0000  

Line Flows [MVA]
57.7260  58.3096  58.8472  59.3034  59.4504  58.9105  58.0423  58.1945  58.7055  61.5318  59.1719  63.4851  58.7314  57.5135  57.8139  58.5697  58.4135  60.1203  63.3576  61.3517  64.7329  63.8251  60.3320  58.2566  
43.6408  44.1230  42.4666  41.9765  41.9225  42.3266  44.4584  44.8079  42.6760  44.0544  44.8829  45.9623  42.5837  43.7761  43.3793  44.0699  42.8425  44.5830  45.9531  45.7681  46.8190  45.3443  41.6263  43.0154  
40.1015  40.4265  38.2405  37.4554  37.4356  37.9715  40.9780  41.4283  38.6098  39.4572  41.3068  41.4756  38.4235  40.2678  39.5894  40.2639  38.7888  40.5189  41.4522  41.7077  42.1384  40.4407  36.8095  39.0689  
34.0757  34.3407  33.1981  33.3652  32.7219  34.0949  34.7087  34.0150  33.1657  33.7788  33.9740  34.0942  32.8233  34.2998  34.5142  34.8547  34.1478  34.7325  34.7067  34.9422  34.2207  34.3726  32.1276  33.3742  
78.3995  76.4170  74.4760  69.7448  77.0348  68.8180  76.7847  73.5615  77.5010  86.8486  76.6121  88.9504  74.3846  71.0730  72.9923  80.2236  78.5851  79.6269  88.5651  79.3856  89.0650  88.0651  84.1209  79.1784  
42.1689  41.7960  40.2091  37.8043  41.5599  37.1937  42.1000  40.8607  41.8115  46.6814  40.9658  47.8438  40.1564  38.4286  39.4338  43.1375  42.4276  42.8104  47.6792  43.1482  47.9964  47.3954  45.4563  42.7153  
35.7323  35.3843  29.7078  24.5868  28.0730  23.6740  36.7706  42.9380  32.2220  33.0776  42.7355  43.0090  32.5868  35.0690  29.8403  31.8003  27.7715  33.9848  39.6419  39.4394  45.6883  35.3194  27.5349  33.1289  
16.8174  16.1320  15.8311  13.9319  17.4225  13.4607  15.7952  15.6544  17.0469  20.8750  16.2568  21.7848  16.5404  14.1589  14.5300  17.4665  17.2028  17.2091  20.6878  16.9509  20.8420  21.0506  21.1614  17.9830  
59.1617  56.3507  57.5412  54.1953  58.2947  51.8102  57.2795  52.4143  59.6127  62.8728  57.6727  62.3883  55.3051  52.9548  54.9204  57.8344  57.3883  57.6875  64.7768  56.9469  68.4187  62.6125  60.9614  58.3159  
21.9601  21.1858  20.8419  19.6258  21.5296  19.3268  21.3866  20.5574  21.6500  24.1520  21.5302  24.6890  20.8140  19.9171  20.4222  22.1422  21.9083  22.2067  24.5949  22.3347  24.6801  24.4455  23.4563  22.0847  
21.9601  21.1858  20.8419  19.6258  21.5296  19.3268  21.3866  20.5574  21.6500  24.1520  21.5302  24.6890  20.8140  19.9171  20.4222  22.1422  21.9083  22.2067  24.5949  22.3347  24.6801  24.4455  23.4563  22.0847  

Maximum Line Violation [Percent]
46.1808  46.6477  47.0777  47.4427  47.5603  47.1284  46.4339  46.5556  46.9644  49.2255  47.3375  50.7881  46.9851  46.0108  46.2511  46.8558  46.7308  48.0962  50.6861  49.0814  51.7863  51.0600  48.2656  46.6053  
67.1397  67.8816  65.3332  64.5792  64.4961  65.1178  68.3976  68.9353  65.6554  67.7760  69.0506  70.7113  65.5134  67.3478  66.7373  67.7999  65.9115  68.5893  70.6971  70.4125  72.0292  69.7604  64.0404  66.1775  
61.6947  62.1946  58.8315  57.6238  57.5933  58.4177  63.0430  63.7359  59.3997  60.7033  63.5489  63.8086  59.1131  61.9504  60.9067  61.9444  59.6751  62.3368  63.7727  64.1657  64.8283  62.2165  56.6301  60.1060  
42.7443  43.0348  41.7852  41.9674  41.2670  42.7652  43.4392  42.6777  41.7499  42.4192  42.6328  42.7645  41.3773  42.9900  43.2254  43.5998  42.8233  43.4653  43.4369  43.6961  42.9032  43.0698  40.6228  41.9772  
97.9993  95.5212  93.0950  87.1810  96.2935  86.0225  95.9809  91.9519  96.8763  108.5608  95.7651  111.1880  92.9808  88.8412  91.2404  100.2795  98.2314  99.5336  110.7064  99.2320  111.3312  110.0814  105.1511  98.9730  
28.1126  27.8640  26.8061  25.2029  27.7066  24.7958  28.0667  27.2405  27.8743  31.1209  27.3105  31.8958  26.7709  25.6191  26.2892  28.7583  28.2850  28.5402  31.7862  28.7655  31.9976  31.5970  30.3042  28.4769  
44.6654  44.2304  37.1348  30.7335  35.0913  29.5925  45.9632  53.6724  40.2775  41.3470  53.4194  53.7612  40.7334  43.8362  37.3004  39.7504  34.7144  42.4810  49.5524  49.2993  57.1104  44.1492  34.4187  41.4112  
28.0289  26.8866  26.3851  23.2198  29.0375  22.4344  26.3254  26.0906  28.4116  34.7917  27.0947  36.3080  27.5673  23.5982  24.2166  29.1108  28.6714  28.6818  34.4797  28.2515  34.7366  35.0843  35.2689  29.9717  
40.2132  38.4305  39.2274  37.1575  39.6739  35.6211  39.0363  35.9644  40.5093  42.4645  39.2837  42.1283  37.7915  36.3249  37.5633  39.3031  39.0675  39.2422  43.6534  38.8035  45.9410  42.2823  41.2893  39.6558  
14.6401  14.1239  13.8946  13.0839  14.3531  12.8845  14.2577  13.7049  14.4333  16.1013  14.3534  16.4593  13.8760  13.2781  13.6148  14.7615  14.6056  14.8044  16.3966  14.8898  16.4534  16.2970  15.6375  14.7231  
14.6401  14.1239  13.8946  13.0839  14.3531  12.8845  14.2577  13.7049  14.4333  16.1013  14.3534  16.4593  13.8760  13.2781  13.6148  14.7615  14.6056  14.8044  16.3966  14.8898  16.4534  16.2970  15.6375  14.7231  
